Winding Currents under Load 
Air-Gap Position (elec. degrees)
Current (A)
0	-0.481233
1	-0.24387
2	-0.00690074
3	0.22994
4	0.466747
5	0.703578
6	0.94044
7	1.17729
8	1.41403
9	1.65054
10	1.88668
11	2.12231
12	2.3573
13	2.59153
14	2.82496
15	3.05758
16	3.28943
17	3.52061
18	3.75118
19	3.98122
20	4.21075
21	4.43974
22	4.66811
23	4.89572
24	5.12241
25	5.34798
26	5.57225
27	5.795
28	6.01607
29	6.23532
30	6.45266
31	6.66804
32	6.88143
33	7.09279
34	7.30208
35	7.50924
36	7.71417
37	7.91676
38	8.11694
39	8.31464
40	8.50985
41	8.70258
42	8.8929
43	9.08088
44	9.26659
45	9.45009
46	9.6314
47	9.81051
48	9.98737
49	10.1618
50	10.3338
51	10.5029
52	10.6692
53	10.8322
54	10.992
55	11.1484
56	11.3014
57	11.4509
58	11.5971
59	11.7398
60	11.8792
61	12.0152
62	12.1479
63	12.277
64	12.4025
65	12.5242
66	12.6418
67	12.7552
68	12.8641
69	12.9685
70	13.0681
71	13.163
72	13.2531
73	13.3384
74	13.4191
75	13.4951
76	13.5664
77	13.633
78	13.6948
79	13.7518
80	13.8037
81	13.8504
82	13.8917
83	13.9274
84	13.9575
85	13.9819
86	14.0007
87	14.0138
88	14.0216
89	14.0242
90	14.0217
91	14.0144
92	14.0024
93	13.986
94	13.9654
95	13.9407
96	13.912
97	13.8796
98	13.8437
99	13.8044
100	13.762
101	13.7167
102	13.6688
103	13.6186
104	13.5662
105	13.5116
106	13.455
107	13.396
108	13.3347
109	13.2707
110	13.204
111	13.1342
112	13.0612
113	12.9849
114	12.9052
115	12.8223
116	12.7361
117	12.6468
118	12.5546
119	12.4593
120	12.3612
121	12.26
122	12.1556
123	12.0479
124	11.9366
125	11.8215
126	11.7022
127	11.5788
128	11.451
129	11.3188
130	11.1823
131	11.0415
132	10.8966
133	10.7478
134	10.595
135	10.4384
136	10.2778
137	10.1132
138	9.94452
139	9.77144
140	9.59383
141	9.41153
142	9.22445
143	9.03257
144	8.83595
145	8.63477
146	8.42924
147	8.21968
148	8.00639
149	7.78969
150	7.56985
151	7.34715
152	7.12181
153	6.89406
154	6.66414
155	6.43226
156	6.1987
157	5.96371
158	5.72757
159	5.49056
160	5.25294
161	5.01494
162	4.77676
163	4.53856
164	4.30043
165	4.06237
166	3.82436
167	3.58631
168	3.34812
169	3.10971
170	2.87102
171	2.63204
172	2.39282
173	2.15344
174	1.91401
175	1.67466
176	1.43552
177	1.1967
178	0.958283
179	0.720306
180	0.482747
181	0.245534
182	0.00856304
183	-0.228279
184	-0.465089
185	-0.701922
186	-0.938785
187	-1.17563
188	-1.41238
189	-1.64889
190	-1.88504
191	-2.12067
192	-2.35565
193	-2.58989
194	-2.82332
195	-3.05594
196	-3.2878
197	-3.51897
198	-3.74955
199	-3.97959
200	-4.20912
201	-4.43811
202	-4.66648
203	-4.8941
204	-5.12079
205	-5.34636
206	-5.57063
207	-5.79338
208	-6.01445
209	-6.23371
210	-6.45105
211	-6.66643
212	-6.87982
213	-7.09118
214	-7.30047
215	-7.50763
216	-7.71256
217	-7.91516
218	-8.11534
219	-8.31304
220	-8.50825
221	-8.70098
222	-8.8913
223	-9.07928
224	-9.26499
225	-9.44849
226	-9.6298
227	-9.80892
228	-9.98577
229	-10.1602
230	-10.3322
231	-10.5013
232	-10.6676
233	-10.8306
234	-10.9904
235	-11.1468
236	-11.2998
237	-11.4493
238	-11.5955
239	-11.7382
240	-11.8776
241	-12.0137
242	-12.1463
243	-12.2754
244	-12.4009
245	-12.5226
246	-12.6402
247	-12.7536
248	-12.8626
249	-12.9669
250	-13.0665
251	-13.1614
252	-13.2515
253	-13.3368
254	-13.4175
255	-13.4935
256	-13.5648
257	-13.6314
258	-13.6933
259	-13.7502
260	-13.8021
261	-13.8488
262	-13.8901
263	-13.9259
264	-13.9559
265	-13.9803
266	-13.9991
267	-14.0123
268	-14.02
269	-14.0226
270	-14.0201
271	-14.0128
272	-14.0008
273	-13.9844
274	-13.9638
275	-13.9391
276	-13.9104
277	-13.8781
278	-13.8421
279	-13.8028
280	-13.7604
281	-13.7151
282	-13.6673
283	-13.617
284	-13.5646
285	-13.5101
286	-13.4534
287	-13.3944
288	-13.3331
289	-13.2692
290	-13.2024
291	-13.1326
292	-13.0596
293	-12.9833
294	-12.9037
295	-12.8207
296	-12.7345
297	-12.6452
298	-12.553
299	-12.4577
300	-12.3596
301	-12.2584
302	-12.1541
303	-12.0463
304	-11.935
305	-11.8199
306	-11.7007
307	-11.5772
308	-11.4494
309	-11.3172
310	-11.1807
311	-11.0399
312	-10.895
313	-10.7462
314	-10.5934
315	-10.4368
316	-10.2762
317	-10.1117
318	-9.94294
319	-9.76986
320	-9.59225
321	-9.40995
322	-9.22287
323	-9.03099
324	-8.83438
325	-8.6332
326	-8.42768
327	-8.21811
328	-8.00483
329	-7.78812
330	-7.56829
331	-7.34558
332	-7.12025
333	-6.89251
334	-6.66258
335	-6.43071
336	-6.19714
337	-5.96215
338	-5.72602
339	-5.48901
340	-5.25139
341	-5.01339
342	-4.77522
343	-4.53702
344	-4.29889
345	-4.06083
346	-3.82282
347	-3.58477
348	-3.34659
349	-3.10817
350	-2.86948
351	-2.63051
352	-2.39129
353	-2.15192
354	-1.91249
355	-1.67314
356	-1.434
357	-1.19518
358	-0.956765
359	-0.718791
360	-0.481233
Phase Current ia
0	-11.8785
1	-12.0143
2	-12.147
3	-12.2761
4	-12.4016
5	-12.5233
6	-12.6409
7	-12.7543
8	-12.8632
9	-12.9676
10	-13.0672
11	-13.162
12	-13.2522
13	-13.3375
14	-13.4182
15	-13.4942
16	-13.5655
17	-13.6321
18	-13.6939
19	-13.7509
20	-13.8028
21	-13.8495
22	-13.8908
23	-13.9265
24	-13.9566
25	-13.981
26	-13.9998
27	-14.0129
28	-14.0207
29	-14.0233
30	-14.0208
31	-14.0135
32	-14.0015
33	-13.9851
34	-13.9645
35	-13.9398
36	-13.9111
37	-13.8788
38	-13.8428
39	-13.8035
40	-13.7611
41	-13.7158
42	-13.668
43	-13.6177
44	-13.5653
45	-13.5108
46	-13.4541
47	-13.3951
48	-13.3338
49	-13.2699
50	-13.2031
51	-13.1333
52	-13.0603
53	-12.984
54	-12.9044
55	-12.8214
56	-12.7352
57	-12.646
58	-12.5537
59	-12.4585
60	-12.3603
61	-12.2591
62	-12.1548
63	-12.0471
64	-11.9358
65	-11.8206
66	-11.7014
67	-11.5779
68	-11.4501
69	-11.3179
70	-11.1814
71	-11.0407
72	-10.8958
73	-10.7469
74	-10.5941
75	-10.4375
76	-10.277
77	-10.1124
78	-9.94368
79	-9.7706
80	-9.59299
81	-9.41069
82	-9.22361
83	-9.03173
84	-8.83512
85	-8.63394
86	-8.42842
87	-8.21885
88	-8.00557
89	-7.78886
90	-7.56903
91	-7.34632
92	-7.12099
93	-6.89325
94	-6.66332
95	-6.43145
96	-6.19788
97	-5.96289
98	-5.72676
99	-5.48975
100	-5.25213
101	-5.01413
102	-4.77596
103	-4.53776
104	-4.29963
105	-4.06157
106	-3.82356
107	-3.58551
108	-3.34733
109	-3.10891
110	-2.87022
111	-2.63125
112	-2.39203
113	-2.15265
114	-1.91323
115	-1.67388
116	-1.43473
117	-1.19591
118	-0.957501
119	-0.719526
120	-0.481968
121	-0.244756
122	-0.00778614
123	0.229055
124	0.465863
125	0.702695
126	0.939558
127	1.1764
128	1.41315
129	1.64966
130	1.8858
131	2.12144
132	2.35642
133	2.59065
134	2.82408
135	3.0567
136	3.28856
137	3.51974
138	3.75031
139	3.98035
140	4.20988
141	4.43887
142	4.66724
143	4.89485
144	5.12154
145	5.34712
146	5.57138
147	5.79414
148	6.01521
149	6.23446
150	6.4518
151	6.66718
152	6.88057
153	7.09193
154	7.30122
155	7.50838
156	7.71331
157	7.91591
158	8.11608
159	8.31379
160	8.50899
161	8.70172
162	8.89204
163	9.08002
164	9.26574
165	9.44923
166	9.63055
167	9.80966
168	9.98651
169	10.161
170	10.3329
171	10.5021
172	10.6683
173	10.8314
174	10.9912
175	11.1476
176	11.3005
177	11.4501
178	11.5962
179	11.739
180	11.8784
181	12.0144
182	12.147
183	12.2761
184	12.4016
185	12.5233
186	12.641
187	12.7544
188	12.8633
189	12.9676
190	13.0672
191	13.1621
192	13.2522
193	13.3376
194	13.4182
195	13.4942
196	13.5655
197	13.6321
198	13.694
199	13.751
200	13.8029
201	13.8496
202	13.8909
203	13.9266
204	13.9567
205	13.9811
206	13.9998
207	14.013
208	14.0208
209	14.0233
210	14.0208
211	14.0135
212	14.0015
213	13.9852
214	13.9645
215	13.9398
216	13.9112
217	13.8788
218	13.8428
219	13.8035
220	13.7611
221	13.7158
222	13.668
223	13.6178
224	13.5653
225	13.5108
226	13.4541
227	13.3951
228	13.3338
229	13.2699
230	13.2031
231	13.1333
232	13.0603
233	12.984
234	12.9044
235	12.8214
236	12.7352
237	12.6459
238	12.5537
239	12.4584
240	12.3603
241	12.2591
242	12.1547
243	12.047
244	11.9357
245	11.8206
246	11.7013
247	11.5779
248	11.4501
249	11.3179
250	11.1814
251	11.0406
252	10.8957
253	10.7469
254	10.5941
255	10.4375
256	10.2769
257	10.1123
258	9.94362
259	9.77053
260	9.59292
261	9.41062
262	9.22354
263	9.03166
264	8.83505
265	8.63386
266	8.42834
267	8.21877
268	8.00549
269	7.78878
270	7.56894
271	7.34624
272	7.1209
273	6.89316
274	6.66323
275	6.43136
276	6.19779
277	5.9628
278	5.72667
279	5.48966
280	5.25203
281	5.01403
282	4.77586
283	4.53766
284	4.29952
285	4.06147
286	3.82346
287	3.58541
288	3.34722
289	3.10881
290	2.87011
291	2.63114
292	2.39192
293	2.15254
294	1.91311
295	1.67376
296	1.43462
297	1.1958
298	0.957387
299	0.719411
300	0.481853
301	0.244641
302	0.00767039
303	-0.229171
304	-0.46598
305	-0.702812
306	-0.939675
307	-1.17652
308	-1.41326
309	-1.64978
310	-1.88592
311	-2.12155
312	-2.35654
313	-2.59077
314	-2.8242
315	-3.05682
316	-3.28868
317	-3.51985
318	-3.75043
319	-3.98047
320	-4.21
321	-4.43899
322	-4.66736
323	-4.89497
324	-5.12166
325	-5.34724
326	-5.5715
327	-5.79425
328	-6.01532
329	-6.23458
330	-6.45192
331	-6.6673
332	-6.88068
333	-7.09204
334	-7.30134
335	-7.5085
336	-7.71342
337	-7.91602
338	-8.1162
339	-8.3139
340	-8.50911
341	-8.70184
342	-8.89216
343	-9.08014
344	-9.26585
345	-9.44935
346	-9.63066
347	-9.80978
348	-9.98663
349	-10.1611
350	-10.333
351	-10.5022
352	-10.6684
353	-10.8315
354	-10.9913
355	-11.1477
356	-11.3007
357	-11.4502
358	-11.5963
359	-11.7391
360	-11.8785
Phase Current ib
0	12.3597
1	12.2582
2	12.1539
3	12.0461
4	11.9348
5	11.8197
6	11.7005
7	11.577
8	11.4492
9	11.317
10	11.1805
11	11.0397
12	10.8949
13	10.746
14	10.5932
15	10.4366
16	10.276
17	10.1115
18	9.94276
19	9.76969
20	9.59207
21	9.40978
22	9.2227
23	9.03082
24	8.83421
25	8.63303
26	8.42751
27	8.21794
28	8.00466
29	7.78795
30	7.56812
31	7.34542
32	7.12008
33	6.89234
34	6.66242
35	6.43054
36	6.19698
37	5.96199
38	5.72586
39	5.48885
40	5.25123
41	5.01323
42	4.77506
43	4.53686
44	4.29873
45	4.06068
46	3.82267
47	3.58462
48	3.34643
49	3.10802
50	2.86933
51	2.63036
52	2.39114
53	2.15177
54	1.91234
55	1.67299
56	1.43385
57	1.19503
58	0.956619
59	0.718645
60	0.481088
61	0.243877
62	0.0069086
63	-0.229931
64	-0.466739
65	-0.70357
66	-0.940431
67	-1.17728
68	-1.41402
69	-1.65053
70	-1.88667
71	-2.1223
72	-2.35729
73	-2.59152
74	-2.82494
75	-3.05756
76	-3.28942
77	-3.5206
78	-3.75117
79	-3.98121
80	-4.21074
81	-4.43973
82	-4.6681
83	-4.89571
84	-5.1224
85	-5.34797
86	-5.57224
87	-5.79499
88	-6.01606
89	-6.23531
90	-6.45265
91	-6.66803
92	-6.88142
93	-7.09278
94	-7.30207
95	-7.50923
96	-7.71415
97	-7.91675
98	-8.11693
99	-8.31463
100	-8.50984
101	-8.70257
102	-8.89289
103	-9.08087
104	-9.26658
105	-9.45008
106	-9.63139
107	-9.8105
108	-9.98736
109	-10.1618
110	-10.3338
111	-10.5029
112	-10.6691
113	-10.8322
114	-10.992
115	-11.1484
116	-11.3014
117	-11.4509
118	-11.5971
119	-11.7398
120	-11.8792
121	-12.0152
122	-12.1479
123	-12.277
124	-12.4025
125	-12.5242
126	-12.6418
127	-12.7552
128	-12.8641
129	-12.9685
130	-13.0681
131	-13.1629
132	-13.253
133	-13.3384
134	-13.4191
135	-13.4951
136	-13.5664
137	-13.633
138	-13.6948
139	-13.7518
140	-13.8037
141	-13.8504
142	-13.8917
143	-13.9274
144	-13.9575
145	-13.9819
146	-14.0006
147	-14.0138
148	-14.0216
149	-14.0241
150	-14.0217
151	-14.0143
152	-14.0024
153	-13.986
154	-13.9654
155	-13.9406
156	-13.912
157	-13.8796
158	-13.8437
159	-13.8043
160	-13.7619
161	-13.7167
162	-13.6688
163	-13.6186
164	-13.5662
165	-13.5116
166	-13.4549
167	-13.396
168	-13.3346
169	-13.2707
170	-13.2039
171	-13.1341
172	-13.0611
173	-12.9848
174	-12.9052
175	-12.8222
176	-12.7361
177	-12.6468
178	-12.5545
179	-12.4593
180	-12.3611
181	-12.2599
182	-12.1556
183	-12.0479
184	-11.9366
185	-11.8214
186	-11.7022
187	-11.5787
188	-11.4509
189	-11.3187
190	-11.1822
191	-11.0414
192	-10.8966
193	-10.7477
194	-10.5949
195	-10.4383
196	-10.2777
197	-10.1132
198	-9.94444
199	-9.77136
200	-9.59375
201	-9.41145
202	-9.22437
203	-9.03249
204	-8.83587
205	-8.63469
206	-8.42916
207	-8.2196
208	-8.00631
209	-7.7896
210	-7.56977
211	-7.34706
212	-7.12172
213	-6.89398
214	-6.66405
215	-6.43217
216	-6.19861
217	-5.96362
218	-5.72748
219	-5.49047
220	-5.25285
221	-5.01484
222	-4.77667
223	-4.53847
224	-4.30033
225	-4.06228
226	-3.82427
227	-3.58621
228	-3.34802
229	-3.10961
230	-2.87092
231	-2.63194
232	-2.39272
233	-2.15334
234	-1.91391
235	-1.67456
236	-1.43542
237	-1.1966
238	-0.958183
239	-0.720207
240	-0.482647
241	-0.245434
242	-0.00846295
243	0.22838
244	0.465189
245	0.702022
246	0.938886
247	1.17573
248	1.41248
249	1.64899
250	1.88514
251	2.12077
252	2.35575
253	2.58999
254	2.82342
255	3.05604
256	3.2879
257	3.51908
258	3.74965
259	3.97969
260	4.20922
261	4.43822
262	4.66658
263	4.8942
264	5.12089
265	5.34646
266	5.57073
267	5.79348
268	6.01455
269	6.23381
270	6.45115
271	6.66653
272	6.87992
273	7.09128
274	7.30057
275	7.50773
276	7.71266
277	7.91526
278	8.11544
279	8.31314
280	8.50835
281	8.70108
282	8.8914
283	9.07938
284	9.26509
285	9.44859
286	9.6299
287	9.80902
288	9.98587
289	10.1603
290	10.3323
291	10.5014
292	10.6677
293	10.8307
294	10.9905
295	11.1469
296	11.2999
297	11.4494
298	11.5956
299	11.7383
300	11.8777
301	12.0138
302	12.1464
303	12.2755
304	12.401
305	12.5227
306	12.6403
307	12.7537
308	12.8627
309	12.967
310	13.0666
311	13.1615
312	13.2516
313	13.3369
314	13.4176
315	13.4936
316	13.5649
317	13.6315
318	13.6934
319	13.7503
320	13.8023
321	13.8489
322	13.8902
323	13.926
324	13.956
325	13.9804
326	13.9992
327	14.0124
328	14.0202
329	14.0227
330	14.0202
331	14.0129
332	14.0009
333	13.9845
334	13.9639
335	13.9392
336	13.9106
337	13.8782
338	13.8422
339	13.8029
340	13.7605
341	13.7152
342	13.6674
343	13.6172
344	13.5647
345	13.5102
346	13.4535
347	13.3946
348	13.3332
349	13.2693
350	13.2025
351	13.1327
352	13.0597
353	12.9834
354	12.9038
355	12.8208
356	12.7347
357	12.6454
358	12.5531
359	12.4579
360	12.3597
Phase Current ic
